*** SPECTRAL RESPONSE DATA ***
AATSR Flight Model FPA #2 1.6um channel (AuSpace measuremets).
W
 255
0.00129342
 1.447824     0.00001
 1.449117     0.00001
 1.450410     0.00001
 1.451704     0.00001
 1.452997     0.00000
 1.454291     0.00000
 1.455584     0.00000
 1.456878     0.00000
 1.458171     0.00000
 1.459464     0.00000
 1.460758     0.00000
 1.462051     0.00000
 1.463345     0.00000
 1.464638     0.00000
 1.465931     0.00000
 1.467225     0.00000
 1.468518     0.00000
 1.469812     0.00000
 1.471105     0.00001
 1.472399     0.00000
 1.473692     0.00001
 1.474985     0.00001
 1.476279     0.00002
 1.477572     0.00003
 1.478866     0.00005
 1.480159     0.00007
 1.481453     0.00010
 1.482746     0.00010
 1.484039     0.00014
 1.485333     0.00017
 1.486626     0.00017
 1.487920     0.00018
 1.489213     0.00018
 1.490506     0.00020
 1.491800     0.00029
 1.493093     0.00045
 1.494387     0.00067
 1.495680     0.00073
 1.496974     0.00073
 1.498267     0.00076
 1.499560     0.00085
 1.500854     0.00092
 1.502147     0.00095
 1.503441     0.00108
 1.504734     0.00110
 1.506027     0.00119
 1.507321     0.00143
 1.508614     0.00152
 1.509908     0.00177
 1.511201     0.00188
 1.512495     0.00210
 1.513788     0.00239
 1.515081     0.00253
 1.516375     0.00277
 1.517668     0.00319
 1.518962     0.00357
 1.520255     0.00387
 1.521549     0.00449
 1.522842     0.00494
 1.524135     0.00573
 1.525429     0.00638
 1.526722     0.00741
 1.528016     0.00852
 1.529309     0.00989
 1.530602     0.01171
 1.531896     0.01381
 1.533189     0.01649
 1.534483     0.01957
 1.535776     0.02350
 1.537070     0.02826
 1.538363     0.03387
 1.539656     0.04111
 1.540950     0.05009
 1.542243     0.06101
 1.543537     0.07446
 1.544830     0.09107
 1.546124     0.11047
 1.547417     0.13143
 1.548710     0.15509
 1.550004     0.18169
 1.551297     0.21050
 1.552591     0.24100
 1.553884     0.27164
 1.555177     0.30122
 1.556471     0.33446
 1.557764     0.36986
 1.559058     0.40497
 1.560351     0.44161
 1.561645     0.47867
 1.562938     0.51617
 1.564231     0.55151
 1.565525     0.58882
 1.566818     0.62886
 1.568112     0.66566
 1.569405     0.70495
 1.570698     0.74698
 1.571992     0.78266
 1.573285     0.81873
 1.574579     0.85700
 1.575872     0.88899
 1.577166     0.91736
 1.578459     0.94384
 1.579752     0.96339
 1.581046     0.97886
 1.582339     0.99052
 1.583633     0.99534
 1.584926     0.99935
 1.586220     0.99997
 1.587513     0.99874
 1.588806     1.00000
 1.590100     0.99492
 1.591393     0.98939
 1.592687     0.98500
 1.593980     0.98067
 1.595273     0.97274
 1.596567     0.96300
 1.597860     0.95380
 1.599154     0.94267
 1.600447     0.93150
 1.601741     0.91502
 1.603034     0.89402
 1.604327     0.87956
 1.605621     0.86260
 1.606914     0.84387
 1.608208     0.82207
 1.609501     0.80038
 1.610794     0.78011
 1.612088     0.76009
 1.613381     0.73700
 1.614675     0.71177
 1.615968     0.68754
 1.617262     0.66412
 1.618555     0.63725
 1.619848     0.61077
 1.621142     0.58320
 1.622435     0.55455
 1.623729     0.52648
 1.625022     0.49739
 1.626316     0.46646
 1.627609     0.43473
 1.628902     0.40106
 1.630196     0.36762
 1.631489     0.33449
 1.632783     0.30209
 1.634076     0.27078
 1.635369     0.23981
 1.636663     0.21227
 1.637956     0.18632
 1.639250     0.16149
 1.640543     0.13890
 1.641837     0.11880
 1.643130     0.10048
 1.644423     0.08514
 1.645717     0.07215
 1.647010     0.06122
 1.648304     0.05226
 1.649597     0.04460
 1.650891     0.03803
 1.652184     0.03271
 1.653477     0.02857
 1.654771     0.02490
 1.656064     0.02191
 1.657358     0.01922
 1.658651     0.01697
 1.659944     0.01507
 1.661238     0.01328
 1.662531     0.01183
 1.663825     0.01075
 1.665118     0.00974
 1.666412     0.00875
 1.667705     0.00797
 1.668998     0.00712
 1.670292     0.00649
 1.671585     0.00604
 1.672879     0.00539
 1.674172     0.00504
 1.675465     0.00468
 1.676759     0.00432
 1.678052     0.00388
 1.679346     0.00360
 1.680639     0.00331
 1.681933     0.00301
 1.683226     0.00283
 1.684519     0.00271
 1.685813     0.00241
 1.687106     0.00224
 1.688400     0.00205
 1.689693     0.00181
 1.690987     0.00177
 1.692280     0.00169
 1.693573     0.00156
 1.694867     0.00150
 1.696160     0.00142
 1.697454     0.00132
 1.698747     0.00128
 1.700040     0.00127
 1.701334     0.00125
 1.702627     0.00117
 1.703921     0.00095
 1.705214     0.00080
 1.706508     0.00067
 1.707801     0.00053
 1.709094     0.00050
 1.710388     0.00049
 1.711681     0.00048
 1.712975     0.00048
 1.714268     0.00047
 1.715562     0.00048
 1.716855     0.00047
 1.718148     0.00045
 1.719442     0.00043
 1.720735     0.00042
 1.722029     0.00040
 1.723322     0.00034
 1.724615     0.00031
 1.725909     0.00030
 1.727202     0.00027
 1.728496     0.00025
 1.729789     0.00024
 1.731083     0.00024
 1.732376     0.00024
 1.733669     0.00024
 1.734963     0.00023
 1.736256     0.00024
 1.737550     0.00024
 1.738843     0.00024
 1.740137     0.00024
 1.741430     0.00024
 1.742723     0.00024
 1.744017     0.00025
 1.745310     0.00025
 1.746604     0.00025
 1.747897     0.00025
 1.749190     0.00025
 1.750484     0.00026
 1.751777     0.00026
 1.753071     0.00026
 1.754364     0.00026
 1.755658     0.00027
 1.756951     0.00027
 1.758244     0.00027
 1.759538     0.00027
 1.760831     0.00027
 1.762125     0.00028
 1.763418     0.00028
 1.764711     0.00028
 1.766005     0.00028
 1.767298     0.00028
 1.768592     0.00028
 1.769885     0.00029
 1.771179     0.00029
 1.772472     0.00029
 1.773765     0.00029
 1.775059     0.00028
 1.776352     0.00030
